13579
1 0 1 0 0 0 0 0
0

PHOTO-RESEARCH-SpectraView
PR-703/PC
1095
20-Oct-91  19:15:25
-----------------------
193
Standard-Objec
n.a.
5 nm
1   
3895  msec
390     730     2

Radiometric-Data
0
0
5.949e-002   watts/ster*m2 .    
1.372e+017   photons/ster*m2*sec .    

Photometric-Data
0
9.978e-001  fL .    
3.419e+000  Cd/m2 .    

Colorimetric-Data
9.929e+000  3.419e+000  5.316e+001  (X,Y,Z)
0.1493  0.0514  0.7993  (x,y,z)
0.1800  0.0929  (u,v)
0.1800  0.1394  (u',v')
2  (observer)

0 (CCT_NOT_APPLICABLE)
Spectral-Data
MEASURED
171 (data-points)
(nm)   w/sr*m2/nm

390    4.812e-006
392    6.094e-006
394    5.620e-006
396    8.303e-006
398    6.179e-006
400    5.948e-006
402    8.010e-006
404    1.019e-005
406    8.825e-006
408    1.343e-005
410    1.631e-005
412    2.652e-005
414    4.241e-005
416    8.635e-005
418    1.529e-004
420    2.610e-004
422    4.030e-004
424    5.213e-004
426    5.925e-004
428    6.039e-004
430    6.275e-004
432    7.315e-004
434    1.170e-003
436    1.775e-003
438    1.716e-003
440    1.068e-003
442    7.775e-004
444    7.436e-004
446    7.559e-004
448    7.516e-004
450    7.238e-004
452    7.118e-004
454    7.566e-004
456    8.197e-004
458    8.406e-004
460    8.287e-004
462    8.434e-004
464    8.447e-004
466    8.001e-004
468    7.513e-004
470    7.388e-004
472    7.240e-004
474    6.934e-004
476    6.467e-004
478    6.114e-004
480    5.823e-004
482    5.459e-004
484    5.283e-004
486    5.364e-004
488    5.893e-004
490    6.012e-004
492    4.913e-004
494    3.601e-004
496    2.379e-004
498    1.379e-004
500    7.779e-005
502    4.071e-005
504    2.339e-005
506    1.599e-005
508    1.062e-005
510    8.833e-006
512    7.922e-006
514    6.663e-006
516    7.006e-006
518    6.900e-006
520    8.218e-006
522    7.666e-006
524    8.741e-006
526    9.080e-006
528    9.967e-006
530    1.119e-005
532    1.116e-005
534    1.124e-005
536    1.185e-005
538    1.091e-005
540    1.221e-005
542    1.571e-005
544    2.578e-005
546    4.217e-005
548    4.363e-005
550    2.871e-005
552    1.602e-005
554    1.262e-005
556    1.124e-005
558    9.808e-006
560    9.070e-006
562    9.644e-006
564    8.978e-006
566    8.844e-006
568    8.285e-006
570    8.176e-006
572    7.492e-006
574    6.138e-006
576    8.359e-006
578    8.326e-006
580    8.286e-006
582    3.887e-006
584    2.778e-006
586    5.110e-006
588    4.059e-006
590    4.089e-006
592    4.481e-006
594    3.860e-006
596    5.547e-006
598    5.135e-006
600    5.170e-006
602    5.743e-006
604    3.630e-006
606    4.123e-006
608    6.726e-006
610    4.316e-006
612    3.945e-006
614    4.690e-006
616    4.738e-006
618    5.098e-006
620    5.526e-006
622    4.752e-006
624    4.127e-006
626    5.067e-006
628    4.775e-006
630    4.924e-006
632    6.245e-006
634    4.443e-006
636    6.255e-006
638    6.074e-006
640    4.225e-006
642    4.946e-006
644    4.186e-006
646    3.061e-006
648    4.315e-006
650    2.524e-006
652    3.953e-006
654    4.727e-006
656    5.229e-006
658    5.365e-006
660    2.481e-006
662    2.377e-006
664    2.381e-006
666    3.602e-006
668    1.309e-006
670    3.432e-006
672    4.269e-006
674    3.676e-006
676    2.496e-006
678    5.045e-006
680    2.681e-006
682    5.278e-006
684    1.982e-006
686    1.422e-006
688    1.469e-006
690    1.530e-006
692    1.601e-006
694    1.662e-006
696    1.741e-006
698    2.461e-006
700    2.654e-006
702    1.993e-006
704    2.870e-006
706    2.933e-006
708    2.230e-006
710    2.310e-006
712    2.390e-006
714    4.302e-006
716    2.548e-006
718    2.633e-006
720    2.723e-006
722    4.185e-006
724    3.595e-006
726    2.978e-006
728    4.697e-006
730    3.793e-006

