13579
1 0 1 0 0 0 0 0
0

PHOTO-RESEARCH-SpectraView
PR-703/PC
1095
20-Oct-91  13:53:38
-----------------------
195
Standard-Objec
n.a.
5 nm
1   
4426  msec
390     730     2

Radiometric-Data
0
0
4.749e-002   watts/ster*m2 .    
1.093e+017   photons/ster*m2*sec .    

Photometric-Data
0
7.778e-001  fL .    
2.665e+000  Cd/m2 .    

Colorimetric-Data
8.000e+000  2.665e+000  4.260e+001  (X,Y,Z)
0.1502  0.0500  0.7998  (x,y,z)
0.1821  0.0910  (u,v)
0.1821  0.1365  (u',v')
2  (observer)

0 (CCT_NOT_APPLICABLE)
Spectral-Data
MEASURED
171 (data-points)
(nm)   w/sr*m2/nm

390    8.008e-006
392    2.396e-006
394    4.996e-006
396    7.367e-006
398    3.150e-006
400    5.035e-006
402    4.893e-006
404    7.562e-006
406    5.346e-006
408    9.847e-006
410    1.667e-005
412    2.724e-005
414    4.192e-005
416    8.315e-005
418    1.384e-004
420    2.170e-004
422    3.236e-004
424    4.081e-004
426    4.583e-004
428    4.774e-004
430    5.147e-004
432    6.670e-004
434    1.259e-003
436    1.675e-003
438    1.335e-003
440    8.182e-004
442    6.130e-004
444    5.867e-004
446    5.818e-004
448    5.721e-004
450    5.534e-004
452    5.469e-004
454    5.788e-004
456    6.177e-004
458    6.242e-004
460    6.152e-004
462    6.286e-004
464    6.331e-004
466    6.116e-004
468    5.845e-004
470    5.796e-004
472    5.715e-004
474    5.391e-004
476    5.003e-004
478    4.690e-004
480    4.425e-004
482    4.091e-004
484    3.875e-004
486    3.925e-004
488    4.327e-004
490    4.438e-004
492    3.729e-004
494    2.860e-004
496    2.027e-004
498    1.232e-004
500    7.146e-005
502    3.922e-005
504    2.191e-005
506    1.465e-005
508    9.040e-006
510    8.011e-006
512    6.767e-006
514    5.358e-006
516    4.709e-006
518    4.370e-006
520    4.689e-006
522    5.532e-006
524    6.036e-006
526    6.344e-006
528    6.949e-006
530    8.279e-006
532    9.150e-006
534    7.908e-006
536    9.971e-006
538    8.630e-006
540    8.457e-006
542    1.119e-005
544    2.616e-005
546    3.954e-005
548    3.205e-005
550    1.893e-005
552    1.074e-005
554    8.209e-006
556    7.934e-006
558    6.934e-006
560    8.040e-006
562    7.338e-006
564    6.685e-006
566    6.537e-006
568    6.387e-006
570    5.710e-006
572    6.607e-006
574    7.030e-006
576    8.258e-006
578    7.565e-006
580    7.019e-006
582    4.821e-006
584    5.437e-006
586    4.470e-006
588    3.342e-006
590    4.305e-006
592    4.554e-006
594    4.025e-006
596    4.891e-006
598    3.702e-006
600    4.056e-006
602    2.274e-006
604    3.165e-006
606    3.958e-006
608    4.146e-006
610    2.386e-006
612    2.516e-006
614    3.661e-006
616    3.845e-006
618    2.540e-006
620    2.351e-006
622    4.744e-006
624    3.838e-006
626    5.183e-006
628    4.210e-006
630    4.342e-006
632    3.023e-006
634    3.235e-006
636    3.646e-006
638    2.639e-006
640    2.895e-006
642    1.509e-006
644    2.225e-006
646    2.094e-006
648    3.205e-006
650    1.221e-006
652    1.573e-006
654    3.273e-006
656    4.003e-006
658    3.661e-006
660    9.633e-007
662    2.478e-006
664    3.649e-006
666    2.757e-006
668    1.564e-006
670    2.643e-006
672    3.677e-006
674    1.932e-006
676    1.098e-006
678    3.616e-006
680    1.146e-006
682    1.790e-006
684    2.380e-006
686    1.254e-006
688    1.295e-006
690    1.432e-006
692    2.374e-006
694    2.309e-006
696    4.210e-006
698    2.659e-006
700    1.678e-006
702    2.185e-006
704    4.107e-006
706    1.899e-006
708    1.966e-006
710    2.037e-006
712    2.108e-006
714    2.180e-006
716    2.247e-006
718    2.322e-006
720    2.401e-006
722    3.691e-006
724    3.170e-006
726    2.626e-006
728    2.697e-006
730    2.780e-006

