13579
1 0 1 0 0 0 0 0
0

PHOTO-RESEARCH-SpectraView
PR-703/PC
1095
20-Oct-91  13:52:45
-----------------------
193
Standard-Objec
n.a.
5 nm
1   
15068 msec
390     730     2

Radiometric-Data
0
0
4.721e-002   watts/ster*m2 .    
1.501e+017   photons/ster*m2*sec .    

Photometric-Data
0
2.768e+000  fL .    
9.484e+000  Cd/m2 .    

Colorimetric-Data
1.669e+001  9.484e+000  6.078e-001  (X,Y,Z)
0.6231  0.3542  0.0227  (x,y,z)
0.4152  0.3539  (u,v)
0.4152  0.5309  (u',v')
2  (observer)

0 (CCT_NOT_APPLICABLE)
Spectral-Data
MEASURED
171 (data-points)
(nm)   w/sr*m2/nm

390    5.044e-007
392    4.553e-007
394    4.122e-007
396    4.552e-007
398    4.816e-007
400    3.610e-007
402    9.413e-007
404    5.209e-007
406    3.181e-007
408    3.626e-007
410    4.071e-007
412    2.268e-007
414    3.679e-007
416    8.640e-007
418    1.632e-006
420    2.192e-006
422    3.100e-006
424    3.790e-006
426    4.293e-006
428    3.651e-006
430    4.290e-006
432    5.857e-006
434    1.082e-005
436    1.453e-005
438    1.109e-005
440    6.762e-006
442    4.670e-006
444    4.457e-006
446    4.492e-006
448    4.093e-006
450    4.111e-006
452    4.013e-006
454    4.564e-006
456    4.771e-006
458    5.167e-006
460    5.186e-006
462    5.883e-006
464    6.130e-006
466    6.660e-006
468    7.253e-006
470    7.820e-006
472    9.155e-006
474    9.770e-006
476    1.069e-005
478    1.189e-005
480    1.340e-005
482    1.511e-005
484    1.707e-005
486    2.064e-005
488    2.636e-005
490    3.042e-005
492    3.069e-005
494    3.045e-005
496    2.957e-005
498    2.731e-005
500    2.532e-005
502    2.512e-005
504    2.451e-005
506    2.320e-005
508    2.124e-005
510    2.062e-005
512    2.022e-005
514    1.958e-005
516    1.870e-005
518    1.742e-005
520    1.567e-005
522    1.354e-005
524    1.179e-005
526    1.100e-005
528    1.025e-005
530    9.347e-006
532    8.944e-006
534    8.644e-006
536    8.382e-006
538    8.253e-006
540    9.086e-006
542    1.281e-005
544    2.855e-005
546    4.264e-005
548    3.610e-005
550    2.161e-005
552    1.271e-005
554    1.000e-005
556    9.850e-006
558    9.666e-006
560    1.011e-005
562    1.145e-005
564    1.302e-005
566    1.469e-005
568    1.666e-005
570    2.093e-005
572    3.094e-005
574    6.604e-005
576    1.514e-004
578    2.261e-004
580    2.371e-004
582    1.984e-004
584    1.775e-004
586    1.969e-004
588    2.512e-004
590    2.757e-004
592    2.688e-004
594    2.754e-004
596    3.170e-004
598    3.643e-004
600    3.781e-004
602    3.500e-004
604    3.188e-004
606    3.379e-004
608    3.707e-004
610    3.743e-004
612    3.640e-004
614    3.896e-004
616    4.348e-004
618    4.456e-004
620    4.595e-004
622    5.049e-004
624    5.795e-004
626    5.914e-004
628    5.557e-004
630    5.167e-004
632    4.948e-004
634    4.622e-004
636    4.648e-004
638    4.805e-004
640    4.864e-004
642    4.770e-004
644    4.678e-004
646    4.615e-004
648    4.667e-004
650    4.329e-004
652    3.811e-004
654    3.696e-004
656    4.239e-004
658    4.501e-004
660    4.400e-004
662    4.110e-004
664    4.199e-004
666    4.256e-004
668    3.907e-004
670    3.600e-004
672    3.625e-004
674    3.544e-004
676    3.148e-004
678    2.724e-004
680    2.431e-004
682    2.520e-004
684    2.630e-004
686    2.355e-004
688    1.960e-004
690    1.734e-004
692    1.562e-004
694    1.385e-004
696    1.335e-004
698    1.297e-004
700    1.122e-004
702    8.332e-005
704    6.274e-005
706    5.115e-005
708    4.304e-005
710    3.578e-005
712    2.983e-005
714    2.558e-005
716    2.243e-005
718    2.049e-005
720    1.811e-005
722    1.400e-005
724    1.435e-005
726    1.182e-005
728    8.452e-006
730    7.885e-006

