0
1.768e-002   watts/ster*m2 .    
4.227e+016   photons/ster*m2*sec .    

Photometric-Data
0
5.223e-001  fL .    
1.789e+000  Cd/m2 .    

Colorimetric-Data
3.174e+000  1.789e+000  1.370e+001  (X,Y,Z)
0.1700  0.0959  0.7341  (x,y,z)
0.1785  0.1510  (u,v)
0.1785  0.2264  (u',v')
2  (observer)

0 (CCT_NOT_APPLICABLE)
Spectral-Data
MEASURED
171 (data-points)
(nm)   w/sr*m2/nm

390    1.643e-006
392    9.310e-007
394    1.033e-006
396    1.534e-006
398    1.568e-006
400    2.107e-006
402    2.567e-006
404    2.894e-006
406    3.369e-006
408    4.236e-006
410    5.140e-006
412    7.907e-006
414    1.144e-005
416    1.956e-005
418    3.010e-005
420    4.492e-005
422    7.230e-005
424    1.023e-004
426    1.289e-004
428    1.367e-004
430    1.403e-004
432    1.520e-004
434    2.109e-004
436    2.824e-004
438    2.683e-004
440    1.914e-004
442    1.627e-004
444    1.701e-004
446    1.925e-004
448    2.088e-004
450    2.148e-004
452    2.191e-004
454    2.330e-004
456    2.453e-004
458    2.480e-004
460    2.489e-004
462    2.607e-004
464    2.667e-004
466    2.598e-004
468    2.493e-004
470    2.457e-004
472    2.418e-004
474    2.333e-004
476    2.212e-004
478    2.101e-004
480    1.982e-004
482    1.831e-004
484    1.740e-004
486    1.738e-004
488    1.854e-004
490    1.874e-004
492    1.621e-004
494    1.318e-004
496    9.855e-005
498    6.467e-005
500    4.064e-005
502    2.386e-005
504    1.467e-005
506    1.005e-005
508    6.912e-006
510    5.798e-006
512    4.711e-006
514    4.656e-006
516    4.652e-006
518    5.025e-006
520    5.428e-006
522    6.256e-006
524    7.422e-006
526    8.540e-006
528    9.439e-006
530    1.028e-005
532    1.045e-005
534    1.081e-005
536    1.153e-005
538    1.199e-005
540    1.387e-005
542    1.716e-005
544    2.561e-005
546    3.285e-005
548    2.988e-005
550    2.074e-005
552    1.506e-005
554    1.385e-005
556    1.339e-005
558    1.362e-005
560    1.397e-005
562    1.474e-005
564    1.535e-005
566    1.521e-005
568    1.503e-005
570    1.495e-005
572    1.462e-005
574    1.481e-005
576    1.645e-005
578    1.652e-005
580    1.553e-005
582    1.400e-005
584    1.370e-005
586    1.391e-005
588    1.392e-005
590    1.410e-005
592    1.375e-005
594    1.385e-005
596    1.418e-005
598    1.422e-005
600    1.394e-005
602    1.366e-005
604    1.290e-005
606    1.281e-005
608    1.389e-005
610    1.655e-005
612    1.745e-005
614    1.573e-005
616    1.361e-005
618    1.202e-005
620    1.121e-005
622    1.135e-005
624    1.186e-005
626    1.138e-005
628    1.123e-005
630    1.109e-005
632    1.019e-005
634    9.005e-006
636    8.840e-006
638    8.387e-006
640    8.379e-006
642    8.592e-006
644    7.859e-006
646    7.495e-006
648    7.484e-006
650    7.348e-006
652    6.610e-006
654    6.095e-006
656    6.535e-006
658    6.651e-006
660    5.878e-006
662    5.394e-006
664    6.094e-006
666    5.598e-006
668    5.177e-006
670    5.336e-006
672    4.893e-006
674    4.449e-006
676    4.351e-006
678    3.550e-006
680    3.185e-006
682    4.041e-006
684    3.458e-006
686    3.432e-006
688    3.265e-006
690    2.995e-006
692    2.768e-006
694    2.009e-006
696    2.269e-006
698    2.451e-006
700    1.675e-006
702    1.737e-006
704    1.819e-006
706    2.376e-006
708    6.208e-007
710    1.129e-006
712    1.604e-006
714    5.149e-007
716    4.684e-007
718    8.288e-007
720    1.001e-006
722    7.765e-007
724    9.296e-007
726    9.442e-007
728    5.621e-007
730    1.041e-006

