0
3.369e-002   watts/ster*m2 .    
9.310e+016   photons/ster*m2*sec .    

Photometric-Data
0
6.032e+000  fL .    
2.067e+001  Cd/m2 .    

Colorimetric-Data
9.480e+000  2.067e+001  8.338e-001  (X,Y,Z)
0.3060  0.6671  0.0269  (x,y,z)
0.1178  0.3851  (u,v)
0.1178  0.5777  (u',v')
2  (observer)

0 (CCT_NOT_APPLICABLE)
Spectral-Data
MEASURED
171 (data-points)
(nm)   w/sr*m2/nm

390    1.612e-006
392    1.455e-006
394    1.318e-006
396    1.745e-006
398    2.028e-006
400    9.507e-007
402    2.977e-006
404    3.058e-006
406    1.045e-006
408    1.159e-006
410    7.592e-007
412    7.250e-007
414    6.994e-007
416    1.161e-006
418    2.533e-006
420    1.506e-006
422    2.743e-006
424    3.756e-006
426    2.175e-006
428    3.787e-006
430    3.508e-006
432    5.435e-006
434    1.114e-005
436    1.405e-005
438    1.150e-005
440    4.511e-006
442    5.464e-006
444    2.865e-006
446    5.086e-006
448    3.946e-006
450    5.422e-006
452    4.674e-006
454    4.562e-006
456    4.283e-006
458    4.688e-006
460    5.074e-006
462    5.887e-006
464    4.872e-006
466    5.913e-006
468    5.722e-006
470    5.668e-006
472    6.244e-006
474    4.644e-006
476    5.100e-006
478    4.619e-006
480    4.809e-006
482    6.324e-006
484    5.849e-006
486    6.846e-006
488    6.794e-006
490    6.877e-006
492    5.929e-006
494    4.579e-006
496    5.245e-006
498    6.523e-006
500    5.563e-006
502    7.350e-006
504    8.742e-006
506    1.052e-005
508    1.612e-005
510    2.500e-005
512    3.905e-005
514    6.697e-005
516    1.023e-004
518    1.555e-004
520    2.170e-004
522    2.709e-004
524    3.446e-004
526    4.215e-004
528    4.784e-004
530    5.126e-004
532    5.248e-004
534    5.240e-004
536    5.158e-004
538    5.174e-004
540    5.425e-004
542    6.291e-004
544    9.398e-004
546    1.334e-003
548    1.325e-003
550    9.053e-004
552    5.929e-004
554    4.851e-004
556    4.385e-004
558    4.118e-004
560    4.107e-004
562    4.206e-004
564    4.198e-004
566    4.084e-004
568    3.765e-004
570    3.270e-004
572    2.872e-004
574    2.591e-004
576    2.388e-004
578    2.023e-004
580    1.308e-004
582    6.680e-005
584    3.773e-005
586    2.622e-005
588    2.122e-005
590    1.820e-005
592    1.844e-005
594    1.699e-005
596    1.751e-005
598    1.737e-005
600    1.702e-005
602    1.588e-005
604    1.542e-005
606    1.481e-005
608    1.376e-005
610    1.743e-005
612    1.914e-005
614    1.835e-005
616    1.489e-005
618    1.509e-005
620    1.249e-005
622    1.327e-005
624    1.338e-005
626    1.137e-005
628    1.285e-005
630    1.253e-005
632    1.032e-005
634    8.799e-006
636    1.033e-005
638    9.360e-006
640    9.857e-006
642    9.714e-006
644    7.790e-006
646    8.401e-006
648    7.593e-006
650    7.134e-006
652    6.305e-006
654    7.572e-006
656    6.771e-006
658    9.112e-006
660    5.219e-006
662    7.763e-006
664    7.572e-006
666    3.574e-006
668    6.925e-006
670    6.189e-006
672    5.195e-006
674    2.414e-006
676    5.353e-006
678    3.598e-006
680    8.369e-006
682    4.499e-006
684    5.090e-006
686    4.547e-006
688    2.411e-006
690    5.239e-006
692    2.698e-006
694    3.256e-006
696    1.907e-006
698    6.841e-006
700    4.228e-006
702    1.718e-006
704    1.792e-006
706    1.857e-006
708    1.922e-006
710    3.643e-006
712    3.403e-006
714    2.542e-006
716    3.399e-006
718    2.270e-006
720    7.556e-006
722    2.416e-006
724    4.324e-006
726    3.272e-006
728    3.859e-006
730    1.075e-005

