0
1.848e-001   watts/ster*m2 .    
5.235e+017   photons/ster*m2*sec .    

Photometric-Data
0
1.762e+001  fL .    
6.038e+001  Cd/m2 .    

Colorimetric-Data
5.038e+001  6.038e+001  3.765e+001  (X,Y,Z)
0.3395  0.4068  0.2537  (x,y,z)
0.1885  0.3389  (u,v)
0.1885  0.5083  (u',v')
2  (observer)

0 (CCT_NOT_APPLICABLE)
Spectral-Data
MEASURED
171 (data-points)
(nm)   w/sr*m2/nm

390    4.553e-006
392    1.162e-005
394    1.139e-005
396    1.153e-005
398    6.362e-006
400    4.056e-006
402    9.760e-006
404    3.978e-006
406    9.923e-006
408    8.307e-006
410    1.012e-005
412    1.555e-005
414    2.688e-005
416    4.806e-005
418    7.985e-005
420    1.188e-004
422    1.857e-004
424    2.596e-004
426    3.282e-004
428    3.477e-004
430    3.611e-004
432    3.965e-004
434    5.405e-004
436    7.129e-004
438    6.773e-004
440    4.958e-004
442    4.254e-004
444    4.415e-004
446    5.029e-004
448    5.441e-004
450    5.622e-004
452    5.826e-004
454    6.282e-004
456    6.622e-004
458    6.721e-004
460    6.740e-004
462    7.037e-004
464    7.177e-004
466    7.025e-004
468    6.799e-004
470    6.743e-004
472    6.589e-004
474    6.343e-004
476    6.026e-004
478    5.746e-004
480    5.477e-004
482    5.175e-004
484    4.981e-004
486    5.100e-004
488    5.489e-004
490    5.589e-004
492    4.890e-004
494    4.067e-004
496    3.127e-004
498    2.164e-004
500    1.480e-004
502    9.684e-005
504    7.565e-005
506    6.946e-005
508    7.145e-005
510    8.987e-005
512    1.256e-004
514    1.895e-004
516    2.733e-004
518    3.905e-004
520    5.195e-004
522    6.341e-004
524    7.933e-004
526    9.605e-004
528    1.082e-003
530    1.155e-003
532    1.171e-003
534    1.166e-003
536    1.139e-003
538    1.141e-003
540    1.202e-003
542    1.403e-003
544    2.103e-003
546    2.966e-003
548    2.929e-003
550    2.017e-003
552    1.330e-003
554    1.081e-003
556    9.743e-004
558    9.188e-004
560    9.227e-004
562    9.500e-004
564    9.563e-004
566    9.270e-004
568    8.485e-004
570    7.330e-004
572    6.404e-004
574    5.846e-004
576    5.666e-004
578    5.236e-004
580    4.037e-004
582    2.831e-004
584    2.400e-004
586    2.531e-004
588    2.873e-004
590    3.210e-004
592    3.655e-004
594    4.080e-004
596    4.708e-004
598    5.375e-004
600    5.610e-004
602    5.323e-004
604    4.955e-004
606    5.287e-004
608    5.733e-004
610    5.822e-004
612    5.796e-004
614    6.319e-004
616    7.133e-004
618    7.399e-004
620    7.715e-004
622    8.347e-004
624    9.093e-004
626    9.246e-004
628    9.013e-004
630    8.784e-004
632    8.465e-004
634    7.865e-004
636    7.899e-004
638    8.126e-004
640    8.168e-004
642    8.021e-004
644    7.892e-004
646    7.890e-004
648    7.912e-004
650    7.274e-004
652    6.327e-004
654    6.039e-004
656    6.645e-004
658    7.086e-004
660    7.145e-004
662    6.868e-004
664    6.894e-004
666    6.968e-004
668    6.384e-004
670    5.781e-004
672    5.820e-004
674    5.808e-004
676    5.218e-004
678    4.540e-004
680    3.962e-004
682    4.066e-004
684    4.087e-004
686    3.780e-004
688    3.157e-004
690    2.743e-004
692    2.435e-004
694    2.205e-004
696    2.348e-004
698    2.327e-004
700    2.059e-004
702    1.622e-004
704    1.081e-004
706    9.229e-005
708    7.954e-005
710    6.183e-005
712    4.739e-005
714    4.072e-005
716    3.723e-005
718    2.867e-005
720    1.405e-005
722    4.041e-005
724    3.262e-005
726    3.066e-005
728    2.811e-005
730    3.001e-005

